# WL(nm)    Flux(ergs/cm**2/s/nm) # coadded Eps Eridani in 0.1 res
0.500       1.05E+02
1.500       5.64E+03
2.500       7.00E+02
3.500       1.16E+03
4.500       1.72E+03
5.500       2.13E+03
6.500       2.02E+03
7.500       1.44E+03
8.500       1.31E+03
9.500       7.64E+02
10.500      3.13E+02
11.500      1.56E+02
12.500      8.12E+01
13.500      9.05E+01
14.500      9.90E+02
15.500      7.56E+02
16.500      1.57E+03
17.500      2.32E+04
18.500      1.33E+04
19.500      9.42E+03
20.500      9.05E+03
21.500      4.35E+03
22.500      4.74E+03
23.500      1.06E+03
24.500      2.20E+03
25.500      5.42E+03
26.500      1.86E+03
27.500      3.92E+03
28.500      3.96E+03
29.500      2.02E+03
30.500      2.89E+04
31.500      5.50E+03
32.500      7.37E+03
33.500      7.24E+03
34.500      3.21E+03
35.500      2.74E+03
36.500      3.72E+03
37.500      6.40E+02
38.500      2.74E+02
39.500      2.70E+02
40.500      4.52E+02
41.500      8.37E+02
42.500      2.22E+02
43.500      5.09E+02
44.500      2.03E+02
45.500      2.23E+02
46.500      8.04E+02
47.500      3.20E+02
48.500      5.34E+02
49.500      1.83E+03
50.500      7.77E+02
51.500      2.66E+02
52.500      4.54E+02
53.500      3.45E+02
54.500      2.24E+02
55.500      1.00E+03
56.500      3.04E+02
57.500      3.02E+02
58.500      1.71E+03
59.500      3.60E+02
60.500      1.44E+03
61.500      4.50E+02
62.500      1.95E+03
63.500      4.90E+02
64.500      1.13E+02
65.500      8.86E+01
66.500      7.90E+01
67.500      8.09E+01
68.500      2.79E+02
69.500      2.06E+02
70.500      5.42E+02
71.500      2.37E+02
72.500      1.77E+02
73.500      2.31E+02
74.500      2.85E+02
75.500      4.35E+02
76.500      1.10E+03
77.500      9.97E+02
78.500      1.41E+03
79.500      6.61E+02
80.500      6.79E+02
81.500      7.71E+02
82.500      1.14E+03
83.500      1.95E+03
84.500      1.42E+03
85.500      1.58E+03
86.500      1.67E+03
87.500      1.99E+03
88.500      2.27E+03
89.500      2.76E+03
90.500      3.26E+03
91.500      2.49E+03
92.500      8.89E+02
93.500      7.79E+02
94.500      5.55E+02
95.500      3.22E+02
96.500      3.35E+02
97.500      5.99E+03
98.500      6.82E+02
99.500      1.05E+03
100.500     4.26E+02
101.500     4.92E+02
102.500     4.49E+03
103.500     4.64E+03
104.500     6.80E+02
105.500     5.75E+02
106.500     5.48E+02
107.500     5.81E+02
108.500     9.75E+02
109.500     6.56E+02
110.500     7.00E+02
111.500     6.42E+02
112.500     6.99E+02
113.500     5.46E+02
114.500     3.69E+02
115.000     1.41E+04
115.100     3.98E+03
115.200     3.46E+03
115.300     2.13E+03
115.400     2.11E+03
115.500     2.19E+03
115.600     2.81E+03
115.700     2.54E+03
115.800     2.50E+03
115.900     1.88E+03
116.000     1.84E+03
116.100     1.52E+03
116.200     1.40E+03
116.300     1.74E+03
116.400     1.10E+03
116.500     1.32E+03
116.600     1.77E+03
116.700     1.85E+03
116.800     1.74E+03
116.900     1.26E+03
117.000     1.44E+03
117.100     1.31E+03
117.200     1.63E+03
117.300     1.34E+03
117.400     3.23E+03
117.500     2.40E+04
117.600     9.65E+03
117.700     1.19E+03
117.800     1.35E+03
117.900     1.04E+03
118.000     9.22E+02
118.100     8.83E+02
118.200     8.30E+02
118.300     8.15E+02
118.400     1.12E+03
118.500     1.08E+03
118.600     9.98E+02
118.700     9.31E+02
118.800     1.04E+03
118.900     1.50E+03
119.000     2.02E+03
119.100     9.30E+02
119.200     1.04E+03
119.300     1.86E+03
119.400     3.08E+03
119.500     1.22E+03
119.600     9.60E+02
119.700     1.57E+03
119.800     1.18E+03
119.900     1.87E+03
120.000     1.73E+03
120.100     1.54E+03
120.200     1.13E+03
120.300     1.71E+03
120.400     2.24E+03
120.500     2.27E+03
120.600     4.02E+04
120.700     2.23E+03
120.800     2.33E+03
120.900     3.72E+03
121.000     5.28E+03
121.100     7.34E+03
121.200     1.24E+04
121.300     2.71E+04
121.400     1.19E+05
121.500     8.58E+05
121.600     6.74E+05
121.700     4.69E+04
121.800     2.21E+04
121.900     7.38E+03
122.000     5.56E+03
122.100     4.63E+03
122.200     4.07E+03
122.300     2.94E+03
122.400     2.95E+03
122.500     2.41E+03
122.600     1.55E+03
122.700     1.42E+03
122.800     9.85E+02
122.900     1.07E+03
123.000     8.11E+02
123.100     7.66E+02
123.200     8.17E+02
123.300     8.11E+02
123.400     7.85E+02
123.500     8.17E+02
123.600     6.39E+02
123.700     5.29E+02
123.800     9.85E+03
123.900     1.74E+03
124.000     5.29E+02
124.100     6.11E+02
124.200     5.76E+03
124.300     1.23E+03
124.400     5.13E+02
124.500     5.80E+02
124.600     6.61E+02
124.700     8.06E+02
124.800     5.36E+02
124.900     5.65E+02
125.000     8.23E+02
125.100     5.52E+02
125.200     4.42E+02
125.300     1.31E+03
125.400     5.51E+02
125.500     5.28E+02
125.600     1.07E+03
125.700     5.91E+02
125.800     1.01E+03
125.900     1.44E+03
126.000     2.62E+03
126.100     9.15E+02
126.200     3.70E+02
126.300     3.82E+02
126.400     5.94E+03
126.500     2.04E+03
126.600     1.13E+03
126.700     5.74E+02
126.800     3.07E+02
126.900     2.65E+02
127.000     4.15E+02
127.100     3.04E+02
127.200     2.70E+02
127.300     3.59E+02
127.400     6.19E+02
127.500     8.57E+02
127.600     6.91E+02
127.700     1.37E+03
127.800     4.22E+02
127.900     8.57E+02
128.000     1.08E+03
128.100     3.15E+02
128.200     3.26E+02
128.300     2.86E+02
128.400     2.65E+02
128.500     2.62E+02
128.600     3.08E+02
128.700     3.44E+02
128.800     1.26E+03
128.900     3.73E+02
129.000     4.45E+02
129.100     3.06E+02
129.200     2.78E+02
129.300     3.18E+02
129.400     8.30E+02
129.500     4.95E+02
129.600     9.08E+02
129.700     3.09E+02
129.800     1.01E+03
129.900     1.60E+03
130.000     7.44E+02
130.100     8.70E+02
130.200     1.35E+04
130.300     1.09E+03
130.400     2.01E+04
130.500     3.45E+03
130.600     2.04E+04
130.700     3.37E+02
130.800     3.98E+02
130.900     2.95E+03
131.000     6.50E+02
131.100     1.18E+03
131.200     5.68E+02
131.300     6.79E+02
131.400     3.15E+02
131.500     4.88E+02
131.600     7.77E+02
131.700     3.50E+02
131.800     4.04E+02
131.900     7.64E+02
132.000     2.47E+02
132.100     2.80E+02
132.200     2.94E+02
132.300     6.18E+02
132.400     5.13E+02
132.500     3.07E+02
132.600     4.37E+02
132.700     3.54E+02
132.800     8.95E+02
132.900     1.71E+03
133.000     3.92E+02
133.100     2.96E+02
133.200     3.45E+02
133.300     5.23E+02
133.400     2.07E+04
133.500     5.18E+04
133.600     1.42E+03
133.700     4.28E+02
133.800     3.55E+02
133.900     3.39E+02
134.000     3.97E+02
134.100     4.01E+02
134.200     4.42E+02
134.300     3.70E+02
134.400     4.12E+02
134.500     3.41E+02
134.600     3.12E+02
134.700     4.94E+02
134.800     3.68E+02
134.900     6.76E+02
135.000     3.49E+02
135.100     2.40E+03
135.200     3.59E+02
135.300     3.56E+02
135.400     7.15E+02
135.500     3.07E+03
135.600     3.98E+02
135.700     7.37E+02
135.800     1.01E+03
135.900     7.65E+02
136.000     6.13E+02
136.100     7.41E+02
136.200     3.43E+02
136.300     4.37E+02
136.400     8.76E+02
136.500     3.43E+02
136.600     3.90E+02
136.700     3.46E+02
136.800     4.58E+02
136.900     4.05E+02
137.000     3.98E+02
137.100     1.52E+03
137.200     4.55E+02
137.300     3.79E+02
137.400     5.02E+02
137.500     3.84E+02
137.600     3.90E+02
137.700     4.82E+02
137.800     4.70E+02
137.900     4.76E+02
138.000     4.40E+02
138.100     4.06E+02
138.200     4.04E+02
138.300     4.31E+02
138.400     4.16E+02
138.500     4.48E+02
138.600     4.05E+02
138.700     5.06E+02
138.800     4.70E+02
138.900     4.27E+02
139.000     4.10E+02
139.100     5.06E+02
139.200     6.71E+02
139.300     2.32E+04
139.400     2.71E+03
139.500     3.87E+02
139.600     5.03E+02
139.700     4.74E+02
139.800     4.98E+02
139.900     9.09E+02
140.000     5.91E+02
140.100     2.45E+03
140.200     1.24E+04
140.300     1.88E+03
140.400     1.03E+03
140.500     6.79E+02
140.600     8.16E+02
140.700     8.98E+02
140.800     5.73E+02
140.900     5.90E+02
141.000     5.74E+02
141.100     5.49E+02
141.200     7.13E+02
141.300     6.30E+02
141.400     5.57E+02
141.500     6.50E+02
141.600     6.39E+02
141.700     6.97E+02
141.800     4.67E+02
141.900     5.19E+02
142.000     4.63E+02
142.100     4.91E+02
142.200     4.97E+02
142.300     5.24E+02
142.400     5.66E+02
142.500     1.35E+03
142.600     5.07E+02
142.700     5.37E+02
142.800     5.81E+02
142.900     5.75E+02
143.000     6.24E+02
143.100     8.66E+02
143.200     1.41E+03
143.300     1.09E+03
143.400     6.72E+02
143.500     7.15E+02
143.600     8.12E+02
143.700     7.44E+02
143.800     6.57E+02
143.900     5.99E+02
144.000     5.66E+02
144.100     6.15E+02
144.200     5.23E+02
144.300     6.44E+02
144.400     6.98E+02
144.500     8.46E+02
144.600     6.42E+02
144.700     6.47E+02
144.800     6.79E+02
144.900     6.35E+02
145.000     6.42E+02
145.100     5.60E+02
145.200     7.00E+02
145.300     6.60E+02
145.400     7.61E+02
145.500     7.36E+02
145.600     6.70E+02
145.700     6.99E+02
145.800     7.16E+02
145.900     1.09E+03
146.000     6.71E+02
146.100     8.36E+02
146.200     7.51E+02
146.300     1.91E+03
146.400     6.21E+02
146.500     8.34E+02
146.600     6.35E+02
146.700     1.50E+03
146.800     9.24E+02
146.900     7.36E+02
147.000     1.05E+03
147.100     6.69E+02
147.200     1.01E+03
147.300     2.53E+03
147.400     2.46E+03
147.500     6.89E+02
147.600     6.72E+02
147.700     7.92E+02
147.800     7.01E+02
147.900     7.40E+02
148.000     7.31E+02
148.100     2.61E+03
148.200     8.16E+02
148.300     1.44E+03
148.400     7.48E+02
148.500     1.23E+03
148.600     1.27E+03
148.700     1.28E+03
148.800     7.75E+02
148.900     7.65E+02
149.000     9.23E+02
149.100     8.57E+02
149.200     1.21E+03
149.300     9.34E+02
149.400     1.01E+03
149.500     7.78E+02
149.600     8.73E+02
149.700     8.65E+02
149.800     9.16E+02
149.900     8.78E+02
150.000     8.64E+02
150.100     9.45E+02
150.200     9.68E+02
150.300     8.66E+02
150.400     9.56E+02
150.500     9.59E+02
150.600     8.97E+02
150.700     9.83E+02
150.800     8.84E+02
150.900     1.02E+03
151.000     1.25E+03
151.100     1.45E+03
151.200     1.05E+03
151.300     1.07E+03
151.400     9.89E+02
151.500     9.57E+02
151.600     9.30E+02
151.700     1.02E+03
151.800     1.16E+03
151.900     1.03E+03
152.000     9.69E+02
152.100     9.80E+02
152.200     9.89E+02
152.300     9.68E+02
152.400     1.06E+03
152.500     1.03E+03
152.600     6.22E+03
152.700     1.11E+03
152.800     9.78E+02
152.900     1.18E+03
153.000     7.42E+02
153.100     9.08E+02
153.200     1.32E+03
153.300     7.51E+03
153.400     1.47E+03
153.500     8.81E+02
153.600     9.85E+02
153.700     1.73E+03
153.800     1.02E+03
153.900     6.78E+02
154.000     1.40E+03
154.100     1.59E+03
154.200     1.53E+03
154.300     8.82E+02
154.400     1.16E+03
154.500     1.63E+03
154.600     8.89E+02
154.700     2.42E+03
154.800     5.91E+04
154.900     1.19E+03
155.000     2.84E+04
155.100     6.15E+03
155.200     1.17E+03
155.300     1.21E+03
155.400     1.15E+03
155.500     9.74E+02
155.600     1.10E+03
155.700     5.75E+02
155.800     1.42E+03
155.900     1.75E+03
156.000     1.01E+04
156.100     9.80E+03
156.200     8.89E+02
156.300     1.44E+03
156.400     9.21E+02
156.500     9.05E+02
156.600     9.95E+02
156.700     1.11E+03
156.800     1.41E+03
156.900     1.29E+03
157.000     1.28E+03
157.100     1.92E+03
157.200     6.54E+02
157.300     1.61E+03
157.400     1.74E+03
157.500     1.23E+03
157.600     9.27E+02
157.700     8.23E+02
157.800     7.47E+02
157.900     4.32E+02
158.000     1.27E+03
158.100     8.71E+02
158.200     6.91E+02
158.300     8.16E+02
158.400     1.36E+03
158.500     1.05E+03
158.600     1.39E+03
158.700     9.19E+02
158.800     2.22E+03
158.900     7.59E+02
159.000     9.49E+02
159.100     7.22E+02
159.200     1.47E+03
159.300     5.32E+02
159.400     1.65E+03
159.500     1.69E+03
159.600     4.88E+02
159.700     9.33E+02
159.800     1.52E+03
159.900     8.47E+02
160.000     1.35E+03
160.100     1.42E+03
160.200     1.56E+03
160.300     2.03E+03
160.400     5.19E+02
160.500     9.31E+02
160.600     8.45E+02
160.700     1.14E+03
160.800     1.80E+03
160.900     6.64E+02
161.000     7.96E+02
161.100     1.26E+03
161.200     1.45E+03
161.300     1.62E+03
161.400     1.27E+03
161.500     7.50E+02
161.600     9.35E+02
161.700     8.05E+02
161.800     1.54E+03
161.900     1.01E+03
162.000     1.21E+03
162.100     2.28E+03
162.200     1.39E+03
162.300     1.71E+03
162.400     6.70E+02
162.500     1.90E+03
162.600     1.05E+03
162.700     9.47E+02
162.800     6.31E+02
162.900     2.42E+03
163.000     1.51E+03
163.100     1.41E+03
163.200     2.06E+03
163.300     1.28E+03
163.400     1.59E+03
163.500     1.40E+03
163.600     1.49E+03
163.700     1.44E+03
163.800     1.10E+03
163.900     1.41E+03
164.000     7.02E+04
164.100     1.54E+03
164.200     8.54E+02
164.300     1.91E+03
164.400     6.30E+02
164.500     8.29E+02
164.600     8.12E+02
164.700     1.29E+03
164.800     9.48E+02
164.900     1.68E+03
165.000     9.15E+02
165.100     9.62E+02
165.200     5.84E+02
165.300     2.06E+03
165.400     2.67E+03
165.500     1.26E+03
165.600     1.81E+04
165.700     2.44E+04
165.800     1.57E+04
165.900     2.87E+03
166.000     1.31E+03
166.100     9.88E+02
166.200     1.60E+03
166.300     1.60E+03
166.400     8.44E+02
166.500     8.57E+02
166.600     2.89E+03
166.700     7.71E+02
166.800     1.19E+03
166.900     1.12E+03
167.000     1.74E+04
167.100     2.16E+03
167.200     1.18E+03
167.300     1.51E+03
167.400     2.32E+03
167.500     1.43E+03
167.600     1.54E+03
167.700     9.53E+02
167.800     7.97E+02
167.900     1.27E+03
168.000     9.07E+02
168.100     1.47E+03
168.200     8.69E+02
168.300     1.23E+03
168.400     9.59E+02
168.500     1.20E+03
168.600     3.82E+03
168.700     1.04E+03
168.800     1.18E+03
168.900     1.11E+03
169.000     3.80E+02
169.100     1.82E+03
169.200     1.65E+03
169.300     1.64E+03
169.400     1.85E+03
169.500     1.43E+03
169.600     5.08E+03
169.700     8.76E+02
169.800     2.16E+03
169.900     1.18E+03
170.000     1.33E+03
170.100     1.49E+03
170.200     1.65E+03
170.300     1.82E+03
170.400     1.98E+03
170.500     2.15E+03
170.600     2.31E+03
170.700     2.48E+03
170.800     2.64E+03
170.900     2.80E+03
171.000     2.97E+03
171.100     3.13E+03
171.200     3.30E+03
171.300     3.46E+03
171.400     3.62E+03
171.500     3.79E+03
171.600     3.95E+03
171.700     4.12E+03
171.800     4.28E+03
171.900     4.44E+03
172.000     4.61E+03
172.100     4.77E+03
172.200     4.94E+03
172.300     5.10E+03
172.400     5.27E+03
172.500     5.43E+03
172.600     5.59E+03
172.700     5.76E+03
172.800     5.92E+03
172.900     6.09E+03
173.000     6.25E+03
173.100     4.29E+03
173.200     4.40E+03
173.300     5.70E+03
173.400     4.19E+03
173.500     3.46E+03
173.600     3.70E+03
173.700     3.50E+03
173.800     3.55E+03
173.900     3.33E+03
174.000     3.95E+03
174.100     2.94E+03
174.200     3.09E+03
174.300     3.57E+03
174.400     3.20E+03
174.500     4.15E+03
174.600     2.81E+03
174.700     3.08E+03
174.800     4.75E+03
174.900     4.23E+03
175.000     3.22E+03
175.100     5.51E+03
175.200     4.60E+03
175.300     4.47E+03
175.400     3.23E+03
175.500     3.72E+03
175.600     3.24E+03
175.700     3.25E+03
175.800     3.46E+03
175.900     3.10E+03
176.000     4.31E+03
176.100     4.94E+03
176.200     3.60E+03
176.300     3.98E+03
176.400     4.11E+03
176.500     4.99E+03
176.600     3.63E+03
176.700     3.11E+03
176.800     3.77E+03
176.900     3.27E+03
177.000     3.87E+03
177.100     3.43E+03
177.200     3.50E+03
177.300     3.93E+03
177.400     4.29E+03
177.500     3.52E+03
177.600     2.92E+03
177.700     3.80E+03
177.800     4.13E+03
177.900     3.82E+03
178.000     3.62E+03
178.100     3.48E+03
178.200     3.85E+03
178.300     3.40E+03
178.400     2.69E+03
178.500     3.43E+03
178.600     4.16E+03
178.700     2.99E+03
178.800     4.55E+03
178.900     3.69E+03
179.000     3.67E+03
179.100     2.88E+03
179.200     2.94E+03
179.300     4.15E+03
179.400     3.07E+03
179.500     3.26E+03
179.600     2.76E+03
179.700     3.38E+03
179.800     3.22E+03
179.900     2.88E+03
180.000     3.18E+03
180.100     2.53E+03
180.200     3.11E+03
180.300     2.94E+03
180.400     3.21E+03
180.500     3.69E+03
180.600     2.76E+03
180.700     1.04E+04
180.800     7.54E+04
180.900     4.41E+03
181.000     3.29E+03
181.100     4.16E+03
181.200     4.42E+03
181.300     3.76E+03
181.400     3.56E+03
181.500     3.92E+03
181.600     3.84E+04
181.700     1.24E+05
181.800     3.53E+03
181.900     3.10E+03
182.000     6.86E+03
182.100     3.75E+03
182.200     4.74E+03
182.300     3.29E+03
182.400     3.91E+03
182.500     4.30E+03
182.600     6.98E+03
182.700     4.12E+03
182.800     3.53E+03
182.900     3.03E+03
183.000     2.95E+03
183.100     4.37E+03
183.200     3.68E+03
183.300     3.61E+03
183.400     3.19E+03
183.500     3.87E+03
183.600     3.62E+03
183.700     2.90E+03
183.800     3.11E+03
183.900     3.22E+03
184.000     3.39E+03
184.100     4.57E+03
184.200     3.96E+03
184.300     3.16E+03
184.400     3.62E+03
184.500     3.72E+03
184.600     4.15E+03
184.700     3.33E+03
184.800     4.21E+03
184.900     3.79E+03
185.000     4.29E+03
185.100     4.62E+03
185.200     3.60E+03
185.300     3.26E+03
185.400     7.99E+03
185.500     4.41E+03
185.600     2.98E+03
185.700     2.68E+03
185.800     3.69E+03
185.900     5.26E+03
186.000     4.31E+03
186.100     3.22E+03
186.200     5.90E+03
186.300     3.81E+03
186.400     3.77E+03
186.500     3.46E+03
186.600     4.41E+03
186.700     3.75E+03
186.800     4.53E+03
186.900     3.92E+03
187.000     3.29E+03
187.100     3.51E+03
187.200     3.30E+03
187.300     5.38E+03
187.400     4.45E+03
187.500     7.35E+03
187.600     4.07E+03
187.700     4.03E+03
187.800     3.36E+03
187.900     3.62E+03
188.000     3.71E+03
188.100     4.24E+03
188.200     4.17E+03
188.300     3.95E+03
188.400     4.65E+03
188.500     3.55E+03
188.600     3.73E+03
188.700     3.87E+03
188.800     4.91E+03
188.900     4.08E+03
189.000     4.24E+03
189.100     4.62E+03
189.200     1.65E+04
189.300     4.80E+03
189.400     4.36E+03
189.500     5.01E+03
189.600     4.49E+03
189.700     4.31E+03
189.800     4.13E+03
189.900     3.79E+03
190.000     1.08E+04
190.100     1.05E+04
190.200     4.40E+03
190.300     5.34E+03
190.400     5.23E+03
190.500     5.43E+03
190.600     4.10E+03
190.700     4.54E+03
190.800     5.31E+03
190.900     5.50E+03
191.000     4.06E+03
191.100     4.97E+03
191.200     4.25E+03
191.300     4.02E+03
191.400     7.39E+03
191.500     7.10E+03
191.600     4.93E+03
191.700     4.95E+03
191.800     4.17E+03
191.900     4.73E+03
192.000     5.05E+03
192.100     5.68E+03
192.200     5.28E+03
192.300     7.82E+03
192.400     4.66E+03
192.500     4.46E+03
192.600     9.55E+03
192.700     5.20E+03
192.800     4.13E+03
192.900     4.79E+03
193.000     7.39E+03
193.100     8.66E+03
193.200     4.21E+03
193.300     3.80E+03
193.400     4.00E+03
193.500     3.60E+03
193.600     5.89E+03
193.700     3.36E+03
193.800     4.98E+03
193.900     4.91E+03
194.000     5.26E+03
194.100     5.36E+03
194.200     6.40E+03
194.300     6.27E+03
194.400     6.62E+03
194.500     5.60E+03
194.600     5.08E+03
194.700     5.86E+03
194.800     6.04E+03
194.900     5.73E+03
195.000     5.66E+03
195.100     5.39E+03
195.200     4.68E+03
195.300     5.50E+03
195.400     6.19E+03
195.500     5.99E+03
195.600     6.42E+03
195.700     5.91E+03
195.800     5.51E+03
195.900     6.45E+03
196.000     5.91E+03
196.100     5.74E+03
196.200     5.93E+03
196.300     5.84E+03
196.400     5.55E+03
196.500     6.38E+03
196.600     6.84E+03
196.700     6.78E+03
196.800     7.92E+03
196.900     7.49E+03
197.000     6.83E+03
197.100     6.74E+03
197.200     6.34E+03
197.300     6.28E+03
197.400     6.35E+03
197.500     6.57E+03
197.600     6.45E+03
197.700     7.34E+03
197.800     7.05E+03
197.900     7.72E+03
198.000     8.16E+03
198.100     6.76E+03
198.200     7.19E+03
198.300     7.87E+03
